Di02-R405_Spectrum
Data format:  Wavelength (nm) <tab> Transmission (0 to 1)
345.0	0.00111
345.2	0.00123
345.4	8.99e-04
345.6	0.00129
345.8	9.0072e-04
346.0	0.00119
346.2	0.00125
346.4	0.00102
346.6	9.7451e-04
346.8	9.531e-04
347.0	0.00125
347.2	0.0016
347.4	0.0012
347.6	0.00105
347.8	0.00101
348.0	0.00125
348.2	0.00106
348.4	0.00103
348.6	0.00129
348.8	0.00166
349.0	0.00106
349.2	0.00115
349.4	0.00114
349.6	0.00108
349.8	9.9915e-04
350.0	0.0016
350.2	8.6321e-04
350.4	9.4128e-04
350.6	0.00105
350.8	9.6557e-04
351.0	9.5027e-04
351.2	0.00133
351.4	0.00113
351.6	0.00107
351.8	0.00118
352.0	0.00113
352.2	0.00142
352.4	0.00155
352.6	0.00119
352.8	0.00143
353.0	0.00128
353.2	0.00111
353.4	0.00108
353.6	0.00103
353.8	0.00105
354.0	0.00116
354.2	0.00134
354.4	0.00117
354.6	9.4669e-04
354.8	0.00109
355.0	0.0013
355.2	9.8626e-04
355.4	0.00102
355.6	9.5623e-04
355.8	0.00109
356.0	0.00112
356.2	0.00144
356.4	0.00142
356.6	0.00106
356.8	0.00113
357.0	0.0011
357.2	0.00116
357.4	0.00139
357.6	9.7168e-04
357.8	9.7444e-04
358.0	0.00118
358.2	0.00143
358.4	9.7456e-04
358.6	0.00132
358.8	9.5392e-04
359.0	0.00139
359.2	0.00122
359.4	0.00103
359.6	0.00121
359.8	0.00141
360.0	0.0015
360.2	0.00104
360.4	0.00152
360.6	0.00142
360.8	0.00116
361.0	0.00141
361.2	0.0013
361.4	0.00133
361.6	0.00139
361.8	0.00148
362.0	0.00101
362.2	0.00123
362.4	0.00137
362.6	0.0011
362.8	0.00126
363.0	0.00112
363.2	0.00138
363.4	0.00167
363.6	0.00166
363.8	0.00189
364.0	0.00191
364.2	0.00253
364.4	0.00181
364.6	0.00175
364.8	0.00155
365.0	0.00131
365.2	0.00112
365.4	0.00113
365.6	9.8256e-04
365.8	0.00106
366.0	8.8195e-04
366.2	0.00103
366.4	0.00137
366.6	0.00151
366.8	0.00204
367.0	0.00199
367.2	0.00229
367.4	0.00205
367.6	0.00143
367.8	0.00131
368.0	0.00136
368.2	8.7732e-04
368.4	9.7463e-04
368.6	6.0845e-04
368.8	9.429e-04
369.0	9.2944e-04
369.2	9.7146e-04
369.4	0.00126
369.6	0.00128
369.8	0.00188
370.0	0.00232
370.2	0.00285
370.4	0.00264
370.6	0.00255
370.8	0.0019
371.0	0.00134
371.2	0.00103
371.4	7.7955e-04
371.6	8.4796e-04
371.8	0.00114
372.0	8.0627e-04
372.2	7.9174e-04
372.4	8.9267e-04
372.6	0.00102
372.8	0.00115
373.0	0.0017
373.2	0.00232
373.4	0.00333
373.6	0.00414
373.8	0.00351
374.0	0.00272
374.2	0.00186
374.4	0.00126
374.6	0.00108
374.8	0.001
375.0	8.2689e-04
375.2	7.3253e-04
375.4	7.8836e-04
375.6	9.0242e-04
375.8	9.0054e-04
376.0	0.00107
376.2	0.00133
376.4	0.00206
376.6	0.00318
376.8	0.00443
377.0	0.00566
377.2	0.00563
377.4	0.00443
377.6	0.00281
377.8	0.0018
378.0	0.00127
378.2	0.0011
378.4	0.00104
378.6	9.1089e-04
378.8	9.3173e-04
379.0	7.6242e-04
379.2	9.527e-04
379.4	0.00138
379.6	0.00153
379.8	0.00233
380.0	0.00369
380.2	0.00594
380.4	0.00752
380.6	0.0087
380.8	0.00746
381.0	0.00524
381.2	0.00319
381.4	0.00214
381.6	0.0018
381.8	0.00151
382.0	0.00139
382.2	0.00127
382.4	0.00132
382.6	0.00125
382.8	0.00184
383.0	0.00214
383.2	0.00285
383.4	0.00404
383.6	0.00607
383.8	0.00898
384.0	0.01044
384.2	0.01032
384.4	0.00881
384.6	0.00653
384.8	0.00457
385.0	0.0035
385.2	0.00275
385.4	0.00243
385.6	0.00235
385.8	0.00247
386.0	0.0027
386.2	0.00319
386.4	0.00383
386.6	0.00513
386.8	0.00666
387.0	0.00868
387.2	0.01086
387.4	0.01197
387.6	0.01199
387.8	0.01086
388.0	0.00893
388.2	0.00731
388.4	0.00612
388.6	0.0057
388.8	0.00525
389.0	0.00529
389.2	0.00597
389.4	0.00625
389.6	0.00766
389.8	0.00913
390.0	0.01123
390.2	0.01308
390.4	0.0145
390.6	0.01488
390.8	0.0142
391.0	0.0126
391.2	0.01106
391.4	0.00975
391.6	0.00898
391.8	0.00884
392.0	0.01035
392.2	0.01234
392.4	0.01387
392.6	0.01516
392.8	0.01776
393.0	0.01824
393.2	0.01807
393.4	0.01706
393.6	0.01507
393.8	0.01309
394.0	0.01175
394.2	0.01157
394.4	0.01364
394.6	0.01491
394.8	0.01853
395.0	0.02045
395.2	0.01879
395.4	0.01428
395.6	0.00925
395.8	0.00531
396.0	0.00389
396.2	0.00278
396.4	0.00225
396.6	0.00232
396.8	0.00214
397.0	0.00249
397.2	0.00207
397.4	0.00199
397.6	0.00224
397.8	0.00181
398.0	0.00222
398.2	0.00218
398.4	0.00159
398.6	0.00216
398.8	0.00183
399.0	0.002
399.2	0.002
399.4	0.00208
399.6	0.00183
399.8	0.00231
400.0	0.00218
400.2	0.00177
400.4	0.00201
400.6	0.00202
400.8	0.00194
401.0	0.00205
401.2	0.00177
401.4	0.00162
401.6	0.00185
401.8	0.00171
402.0	0.00165
402.2	0.00202
402.4	0.00186
402.6	0.00185
402.8	0.00219
403.0	0.00221
403.2	0.00199
403.4	0.00167
403.6	0.00186
403.8	0.00193
404.0	0.0017
404.2	0.00178
404.4	0.0019
404.6	0.00163
404.8	0.00131
405.0	0.00181
405.2	0.00203
405.4	0.00157
405.6	0.00207
405.8	0.00202
406.0	0.00178
406.2	0.00141
406.4	0.00189
406.6	0.00154
406.8	0.00164
407.0	0.0017
407.2	0.00165
407.4	0.00186
407.6	0.00157
407.8	0.00201
408.0	0.00172
408.2	0.00187
408.4	0.00186
408.6	0.00173
408.8	0.00138
409.0	0.00195
409.2	0.00181
409.4	0.00157
409.6	0.00158
409.8	0.00156
410.0	0.00169
410.2	0.00174
410.4	0.00185
410.6	0.00167
410.8	0.00183
411.0	0.00233
411.2	0.00202
411.4	0.00202
411.6	0.0021
411.8	0.00268
412.0	0.0029
412.2	0.00331
412.4	0.00407
412.6	0.00518
412.8	0.00648
413.0	0.00873
413.2	0.01244
413.4	0.01782
413.6	0.02751
413.8	0.04276
414.0	0.06749
414.2	0.10501
414.4	0.15457
414.6	0.216
414.8	0.27812
415.0	0.3346
415.2	0.37915
415.4	0.41507
415.6	0.4493
415.8	0.48839
416.0	0.54881
416.2	0.63135
416.4	0.72516
416.6	0.81456
416.8	0.87888
417.0	0.91835
417.2	0.93395
417.4	0.93923
417.6	0.94413
417.8	0.94242
418.0	0.94383
418.2	0.94062
418.4	0.941
418.6	0.93789
418.8	0.94458
419.0	0.94828
419.2	0.9513
419.4	0.95459
419.6	0.95647
419.8	0.95865
420.0	0.95718
420.2	0.95983
420.4	0.95776
420.6	0.96002
420.8	0.95893
421.0	0.95852
421.2	0.95991
421.4	0.95849
421.6	0.95896
421.8	0.95814
422.0	0.96065
422.2	0.95992
422.4	0.96256
422.6	0.95879
422.8	0.95852
423.0	0.96178
423.2	0.95829
423.4	0.96004
423.6	0.96068
423.8	0.95949
424.0	0.95874
424.2	0.95752
424.4	0.95852
424.6	0.95993
424.8	0.9551
425.0	0.95773
425.2	0.95701
425.4	0.95787
425.6	0.95815
425.8	0.96192
426.0	0.96079
426.2	0.95958
426.4	0.95951
426.6	0.95841
426.8	0.9563
427.0	0.96251
427.2	0.96009
427.4	0.96201
427.6	0.96085
427.8	0.96014
428.0	0.95996
428.2	0.95968
428.4	0.96181
428.6	0.96157
428.8	0.96112
429.0	0.96002
429.2	0.96167
429.4	0.96106
429.6	0.96536
429.8	0.96822
430.0	0.96831
430.2	0.96717
430.4	0.96702
430.6	0.9668
430.8	0.96321
431.0	0.96276
431.2	0.96408
431.4	0.95975
431.6	0.96051
431.8	0.9589
432.0	0.95809
432.2	0.95694
432.4	0.95787
432.6	0.95921
432.8	0.95734
433.0	0.95734
433.2	0.95785
433.4	0.9581
433.6	0.96019
433.8	0.95988
434.0	0.96002
434.2	0.95761
434.4	0.95909
434.6	0.96031
434.8	0.95915
435.0	0.9603
435.2	0.95684
435.4	0.95745
435.6	0.95685
435.8	0.9579
436.0	0.95737
436.2	0.95581
436.4	0.95494
436.6	0.95533
436.8	0.95631
437.0	0.95593
437.2	0.9555
437.4	0.95724
437.6	0.95703
437.8	0.95631
438.0	0.96002
438.2	0.95839
438.4	0.9576
438.6	0.95672
438.8	0.9584
439.0	0.95978
439.2	0.96251
439.4	0.95915
439.6	0.95951
439.8	0.95826
440.0	0.95835
440.2	0.95685
440.4	0.95813
440.6	0.96043
440.8	0.95615
441.0	0.95848
441.2	0.96048
441.4	0.96163
441.6	0.96215
441.8	0.96158
442.0	0.96051
442.2	0.96288
442.4	0.96187
442.6	0.95981
442.8	0.95956
443.0	0.9598
443.2	0.95965
443.4	0.96285
443.6	0.96027
443.8	0.95991
444.0	0.95878
444.2	0.95948
444.4	0.9582
444.6	0.95881
444.8	0.95994
445.0	0.95585
445.2	0.95956
445.4	0.95649
445.6	0.9586
445.8	0.9559
446.0	0.95671
446.2	0.95765
446.4	0.95718
446.6	0.95443
446.8	0.9558
447.0	0.95552
447.2	0.95499
447.4	0.95252
447.6	0.95324
447.8	0.95348
448.0	0.95229
448.2	0.95277
448.4	0.95131
448.6	0.9507
448.8	0.95142
449.0	0.95229
449.2	0.95328
449.4	0.95335
449.6	0.95389
449.8	0.95298
450.0	0.95448
450.2	0.95451
450.4	0.95205
450.6	0.9532
450.8	0.95402
451.0	0.95373
451.2	0.95412
451.4	0.95417
451.6	0.95239
451.8	0.95203
452.0	0.94954
452.2	0.94951
452.4	0.94785
452.6	0.94862
452.8	0.94755
453.0	0.94949
453.2	0.94788
453.4	0.94875
453.6	0.94677
453.8	0.94903
454.0	0.94947
454.2	0.95029
454.4	0.95013
454.6	0.95231
454.8	0.95598
455.0	0.95512
455.2	0.95538
455.4	0.95537
455.6	0.95524
455.8	0.95691
456.0	0.95655
456.2	0.95882
456.4	0.95652
456.6	0.9564
456.8	0.95507
457.0	0.95553
457.2	0.95618
457.4	0.95378
457.6	0.95102
457.8	0.95086
458.0	0.95061
458.2	0.94958
458.4	0.94794
458.6	0.95055
458.8	0.95139
459.0	0.95213
459.2	0.95193
459.4	0.95032
459.6	0.9519
459.8	0.95378
460.0	0.95462
460.2	0.95705
460.4	0.95601
460.6	0.95569
460.8	0.95891
461.0	0.95751
461.2	0.95667
461.4	0.95776
461.6	0.96014
461.8	0.95956
462.0	0.95514
462.2	0.95557
462.4	0.95399
462.6	0.95374
462.8	0.95249
463.0	0.95134
463.2	0.95206
463.4	0.95132
463.6	0.95047
463.8	0.95151
464.0	0.95045
464.2	0.95087
464.4	0.95288
464.6	0.95041
464.8	0.95275
465.0	0.95428
465.2	0.95406
465.4	0.95371
465.6	0.95547
465.8	0.95498
466.0	0.95607
466.2	0.95633
466.4	0.95527
466.6	0.95773
466.8	0.95656
467.0	0.95297
467.2	0.95222
467.4	0.95299
467.6	0.95155
467.8	0.95331
468.0	0.95091
468.2	0.95054
468.4	0.94902
468.6	0.94728
468.8	0.94686
469.0	0.94778
469.2	0.94747
469.4	0.94628
469.6	0.94628
469.8	0.94747
470.0	0.94698
470.2	0.94855
470.4	0.94937
470.6	0.95009
470.8	0.95185
471.0	0.95095
471.2	0.95088
471.4	0.95134
471.6	0.95278
471.8	0.95301
472.0	0.95438
472.2	0.95486
472.4	0.95607
472.6	0.95486
472.8	0.95562
473.0	0.95548
473.2	0.95499
473.4	0.95538
473.6	0.9561
473.8	0.95396
474.0	0.95276
474.2	0.9535
474.4	0.9535
474.6	0.9533
474.8	0.95471
475.0	0.95301
475.2	0.95113
475.4	0.95036
475.6	0.95132
475.8	0.95151
476.0	0.9529
476.2	0.95289
476.4	0.95333
476.6	0.95515
476.8	0.95896
477.0	0.95788
477.2	0.95665
477.4	0.95778
477.6	0.95717
477.8	0.95829
478.0	0.95848
478.2	0.95927
478.4	0.96291
478.6	0.96006
478.8	0.959
479.0	0.96027
479.2	0.96008
479.4	0.95566
479.6	0.95546
479.8	0.95665
480.0	0.95574
480.2	0.95647
480.4	0.95646
480.6	0.95638
480.8	0.9561
481.0	0.95646
481.2	0.95676
481.4	0.95709
481.6	0.95679
481.8	0.95604
482.0	0.95627
482.2	0.9559
482.4	0.95575
482.6	0.9561
482.8	0.95784
483.0	0.9592
483.2	0.95941
483.4	0.95861
483.6	0.95941
483.8	0.95826
484.0	0.95738
484.2	0.95734
484.4	0.95815
484.6	0.9559
484.8	0.9565
485.0	0.95713
485.2	0.95619
485.4	0.95761
485.6	0.95707
485.8	0.95608
486.0	0.9554
486.2	0.95367
486.4	0.95578
486.6	0.95407
486.8	0.9552
487.0	0.95502
487.2	0.95465
487.4	0.95485
487.6	0.95372
487.8	0.95399
488.0	0.95352
488.2	0.95365
488.4	0.95491
488.6	0.95571
488.8	0.9549
489.0	0.95569
489.2	0.9556
489.4	0.95494
489.6	0.95491
489.8	0.95324
490.0	0.9563
490.2	0.95522
490.4	0.95524
490.6	0.95587
490.8	0.95771
491.0	0.95788
491.2	0.95708
491.4	0.9556
491.6	0.9555
491.8	0.95545
492.0	0.95664
492.2	0.95679
492.4	0.95697
492.6	0.95551
492.8	0.95669
493.0	0.95923
493.2	0.95928
493.4	0.95802
493.6	0.95712
493.8	0.95707
494.0	0.95885
494.2	0.95858
494.4	0.95786
494.6	0.95786
494.8	0.95893
495.0	0.95982
495.2	0.95971
495.4	0.95883
495.6	0.95988
495.8	0.95968
496.0	0.96033
496.2	0.95971
496.4	0.9597
496.6	0.95911
496.8	0.96037
497.0	0.96046
497.2	0.95883
497.4	0.9592
497.6	0.95905
497.8	0.9594
498.0	0.96027
498.2	0.95634
498.4	0.95727
498.6	0.96036
498.8	0.95914
499.0	0.95988
499.2	0.95992
499.4	0.95908
499.6	0.96067
499.8	0.96105
500.0	0.96056
500.2	0.96052
500.4	0.95736
500.6	0.95885
500.8	0.96014
501.0	0.96041
501.2	0.96153
501.4	0.96247
501.6	0.96145
501.8	0.96149
502.0	0.96435
502.2	0.96143
502.4	0.96193
502.6	0.9602
502.8	0.96177
503.0	0.96461
503.2	0.96333
503.4	0.96138
503.6	0.96211
503.8	0.96382
504.0	0.96425
504.2	0.96532
504.4	0.96345
504.6	0.96248
504.8	0.96431
505.0	0.9651
505.2	0.96382
505.4	0.9655
505.6	0.96525
505.8	0.96535
506.0	0.96246
506.2	0.9624
506.4	0.96236
506.6	0.96191
506.8	0.96155
507.0	0.96197
507.2	0.9649
507.4	0.96534
507.6	0.9641
507.8	0.96427
508.0	0.96582
508.2	0.9643
508.4	0.96231
508.6	0.96189
508.8	0.96099
509.0	0.96166
509.2	0.95952
509.4	0.96312
509.6	0.96098
509.8	0.95953
510.0	0.9575
510.2	0.95842
510.4	0.9604
510.6	0.95985
510.8	0.95974
511.0	0.96043
511.2	0.95859
511.4	0.95849
511.6	0.96048
511.8	0.96152
512.0	0.96238
512.2	0.96041
512.4	0.96048
512.6	0.9599
512.8	0.95949
513.0	0.95851
513.2	0.95888
513.4	0.96017
513.6	0.96258
513.8	0.96186
514.0	0.96323
514.2	0.96189
514.4	0.96235
514.6	0.96386
514.8	0.96521
515.0	0.96615
515.2	0.96455
515.4	0.96607
515.6	0.96637
515.8	0.96519
516.0	0.96527
516.2	0.96596
516.4	0.96527
516.6	0.96591
516.8	0.96311
517.0	0.9625
517.2	0.96334
517.4	0.96544
517.6	0.96728
517.8	0.9659
518.0	0.9673
518.2	0.96685
518.4	0.96872
518.6	0.96757
518.8	0.96816
519.0	0.96858
519.2	0.9683
519.4	0.96712
519.6	0.96737
519.8	0.96799
520.0	0.9672
520.2	0.96759
520.4	0.9665
520.6	0.96885
520.8	0.96789
521.0	0.96711
521.2	0.96732
521.4	0.96697
521.6	0.96594
521.8	0.96878
522.0	0.96822
522.2	0.96938
522.4	0.96879
522.6	0.96789
522.8	0.9697
523.0	0.97087
523.2	0.9698
523.4	0.96714
523.6	0.9663
523.8	0.9655
524.0	0.96711
524.2	0.96796
524.4	0.96765
524.6	0.96915
524.8	0.96891
525.0	0.97019
525.2	0.96831
525.4	0.96755
525.6	0.96785
525.8	0.96925
526.0	0.96937
526.2	0.97131
526.4	0.97058
526.6	0.9689
526.8	0.96627
527.0	0.96794
527.2	0.9689
527.4	0.96858
527.6	0.96779
527.8	0.9695
528.0	0.96806
528.2	0.9668
528.4	0.96763
528.6	0.96851
528.8	0.96909
529.0	0.96819
529.2	0.96943
529.4	0.9676
529.6	0.9677
529.8	0.96743
530.0	0.96938
530.2	0.96823
530.4	0.96651
530.6	0.96489
530.8	0.96544
531.0	0.9642
531.2	0.96523
531.4	0.9654
531.6	0.96541
531.8	0.96459
532.0	0.96493
532.2	0.96584
532.4	0.96736
532.6	0.96647
532.8	0.96778
533.0	0.96896
533.2	0.96527
533.4	0.96457
533.6	0.9679
533.8	0.96763
534.0	0.96816
534.2	0.9691
534.4	0.96871
534.6	0.96864
534.8	0.97036
535.0	0.97068
535.2	0.97107
535.4	0.9693
535.6	0.97154
535.8	0.97293
536.0	0.97504
536.2	0.9781
536.4	0.97655
536.6	0.97602
536.8	0.97574
537.0	0.97636
537.2	0.97761
537.4	0.97813
537.6	0.97634
537.8	0.97631
538.0	0.97484
538.2	0.97558
538.4	0.97582
538.6	0.97672
538.8	0.97631
539.0	0.9748
539.2	0.97533
539.4	0.97404
539.6	0.9743
539.8	0.97076
540.0	0.9696
540.2	0.9718
540.4	0.9697
540.6	0.96931
540.8	0.97154
541.0	0.97186
541.2	0.97076
541.4	0.97066
541.6	0.9711
541.8	0.96787
542.0	0.96545
542.2	0.96775
542.4	0.96905
542.6	0.96884
542.8	0.96766
543.0	0.96879
543.2	0.96838
543.4	0.96691
543.6	0.96737
543.8	0.96669
544.0	0.96552
544.2	0.96571
544.4	0.96681
544.6	0.97107
544.8	0.96937
545.0	0.96684
545.2	0.96401
545.4	0.96573
545.6	0.96508
545.8	0.96554
546.0	0.96479
546.2	0.96472
546.4	0.96502
546.6	0.96477
546.8	0.96432
547.0	0.96451
547.2	0.96491
547.4	0.96425
547.6	0.96382
547.8	0.96209
548.0	0.96363
548.2	0.96408
548.4	0.9619
548.6	0.96235
548.8	0.9636
549.0	0.96631
549.2	0.96703
549.4	0.96702
549.6	0.96805
549.8	0.96748
550.0	0.96686
550.2	0.96302
550.4	0.96301
550.6	0.96233
550.8	0.96112
551.0	0.96364
551.2	0.96524
551.4	0.96674
551.6	0.96648
551.8	0.96814
552.0	0.96896
552.2	0.96659
552.4	0.96713
552.6	0.96665
552.8	0.96637
553.0	0.96698
553.2	0.96707
553.4	0.96779
553.6	0.96749
553.8	0.96683
554.0	0.96484
554.2	0.96422
554.4	0.96456
554.6	0.9652
554.8	0.96345
555.0	0.96226
555.2	0.96151
555.4	0.95866
555.6	0.95751
555.8	0.95744
556.0	0.95744
556.2	0.95588
556.4	0.9585
556.6	0.95825
556.8	0.95879
557.0	0.95988
557.2	0.96079
557.4	0.95951
557.6	0.95697
557.8	0.95859
558.0	0.95887
558.2	0.96049
558.4	0.9598
558.6	0.95528
558.8	0.95472
559.0	0.95766
559.2	0.9626
559.4	0.96113
559.6	0.96133
559.8	0.96352
560.0	0.96451
560.2	0.96516
560.4	0.96384
560.6	0.96195
560.8	0.9618
561.0	0.9639
561.2	0.96339
561.4	0.96401
561.6	0.96216
561.8	0.96165
562.0	0.9625
562.2	0.96368
562.4	0.96533
562.6	0.96347
562.8	0.96294
563.0	0.96165
563.2	0.9638
563.4	0.96497
563.6	0.96315
563.8	0.96384
564.0	0.96423
564.2	0.96358
564.4	0.96213
564.6	0.96227
564.8	0.96044
565.0	0.96014
565.2	0.96364
565.4	0.96201
565.6	0.96164
565.8	0.96245
566.0	0.96244
566.2	0.96152
566.4	0.95853
566.6	0.96004
566.8	0.96051
567.0	0.95896
567.2	0.96063
567.4	0.96023
567.6	0.96134
567.8	0.96211
568.0	0.96069
568.2	0.96177
568.4	0.96314
568.6	0.96403
568.8	0.96442
569.0	0.96223
569.2	0.96242
569.4	0.96301
569.6	0.96519
569.8	0.96242
570.0	0.9633
570.2	0.96475
570.4	0.96445
570.6	0.9646
570.8	0.96342
571.0	0.96402
571.2	0.96497
571.4	0.96516
571.6	0.96261
571.8	0.96445
572.0	0.96637
572.2	0.96736
572.4	0.96647
572.6	0.9656
572.8	0.96158
573.0	0.96267
573.2	0.96229
573.4	0.96321
573.6	0.9628
573.8	0.96077
574.0	0.95961
574.2	0.95866
574.4	0.95924
574.6	0.95916
574.8	0.95818
575.0	0.9593
575.2	0.95835
575.4	0.9599
575.6	0.96094
575.8	0.95999
576.0	0.95755
576.2	0.95679
576.4	0.95904
576.6	0.96092
576.8	0.95998
577.0	0.95892
577.2	0.95908
577.4	0.95975
577.6	0.95956
577.8	0.95925
578.0	0.959
578.2	0.96129
578.4	0.96014
578.6	0.95771
578.8	0.95753
579.0	0.95975
579.2	0.96015
579.4	0.95989
579.6	0.95958
579.8	0.96021
580.0	0.95852
580.2	0.9578
580.4	0.95959
580.6	0.96021
580.8	0.95892
581.0	0.95845
581.2	0.95612
581.4	0.95486
581.6	0.95502
581.8	0.9543
582.0	0.95457
582.2	0.95466
582.4	0.95498
582.6	0.95467
582.8	0.95429
583.0	0.95275
583.2	0.95245
583.4	0.95237
583.6	0.95343
583.8	0.95397
584.0	0.95524
584.2	0.95673
584.4	0.95464
584.6	0.95467
584.8	0.9548
585.0	0.9554
585.2	0.95478
585.4	0.95669
585.6	0.95591
585.8	0.95475
586.0	0.95667
586.2	0.95743
586.4	0.95975
586.6	0.95995
586.8	0.95775
587.0	0.95916
587.2	0.9611
587.4	0.96163
587.6	0.96135
587.8	0.96225
588.0	0.96094
588.2	0.96172
588.4	0.96163
588.6	0.96058
588.8	0.9611
589.0	0.9612
589.2	0.96208
589.4	0.96223
589.6	0.96003
589.8	0.95996
590.0	0.95959
590.2	0.95913
590.4	0.96107
590.6	0.95949
590.8	0.95822
591.0	0.95879
591.2	0.95913
591.4	0.95775
591.6	0.95735
591.8	0.9562
592.0	0.95327
592.2	0.95125
592.4	0.95145
592.6	0.9534
592.8	0.9528
593.0	0.95167
593.2	0.95151
593.4	0.95109
593.6	0.95124
593.8	0.95086
594.0	0.95368
594.2	0.952
594.4	0.95031
594.6	0.94859
594.8	0.95017
595.0	0.95037
595.2	0.95231
595.4	0.9517
595.6	0.95123
595.8	0.95449
596.0	0.95791
596.2	0.95614
596.4	0.95686
596.6	0.95667
596.8	0.95837
597.0	0.95897
597.2	0.95974
597.4	0.96246
597.6	0.96268
597.8	0.96173
598.0	0.96147
598.2	0.9614
598.4	0.96188
598.6	0.96354
598.8	0.96356
599.0	0.96316
599.2	0.96336
599.4	0.96256
599.6	0.96226
599.8	0.96165
600.0	0.96318
600.2	0.96207
600.4	0.96211
600.6	0.96039
600.8	0.95994
601.0	0.96058
601.2	0.96223
601.4	0.96168
601.6	0.9615
601.8	0.9597
602.0	0.95814
602.2	0.958
602.4	0.95896
602.6	0.9551
602.8	0.95303
603.0	0.95247
603.2	0.95436
603.4	0.95474
603.6	0.95406
603.8	0.95191
604.0	0.95149
604.2	0.95197
604.4	0.95159
604.6	0.95075
604.8	0.9525
605.0	0.95213
605.2	0.95079
605.4	0.95017
605.6	0.9515
605.8	0.9533
606.0	0.95249
606.2	0.95287
606.4	0.95466
606.6	0.95364
606.8	0.95052
607.0	0.9514
607.2	0.95325
607.4	0.95655
607.6	0.95727
607.8	0.9573
608.0	0.95691
608.2	0.95737
608.4	0.95711
608.6	0.95676
608.8	0.95708
609.0	0.95777
609.2	0.95703
609.4	0.95496
609.6	0.95519
609.8	0.95436
610.0	0.95537
610.2	0.95592
610.4	0.95627
610.6	0.95421
610.8	0.95356
611.0	0.9567
611.2	0.95747
611.4	0.95483
611.6	0.95289
611.8	0.95421
612.0	0.95289
612.2	0.95389
612.4	0.95376
612.6	0.95152
612.8	0.95246
613.0	0.95181
613.2	0.95195
613.4	0.95173
613.6	0.95077
613.8	0.94953
614.0	0.94952
614.2	0.94969
614.4	0.94948
614.6	0.94983
614.8	0.94869
615.0	0.94982
615.2	0.94935
615.4	0.94984
615.6	0.94912
615.8	0.94929
616.0	0.95076
616.2	0.94916
616.4	0.9497
616.6	0.95034
616.8	0.9484
617.0	0.94761
617.2	0.94624
617.4	0.94709
617.6	0.9492
617.8	0.94527
618.0	0.94656
618.2	0.9475
618.4	0.94916
618.6	0.95322
618.8	0.95378
619.0	0.95469
619.2	0.9558
619.4	0.9555
619.6	0.9555
619.8	0.95529
620.0	0.9564
620.2	0.95541
620.4	0.95685
620.6	0.95669
620.8	0.95517
621.0	0.95313
621.2	0.95684
621.4	0.95964
621.6	0.95782
621.8	0.96045
622.0	0.96098
622.2	0.95914
622.4	0.9558
622.6	0.9582
622.8	0.95741
623.0	0.95629
623.2	0.95543
623.4	0.95457
623.6	0.9552
623.8	0.9531
624.0	0.95277
624.2	0.95383
624.4	0.95701
624.6	0.95559
624.8	0.95587
625.0	0.95425
625.2	0.95587
625.4	0.9555
625.6	0.95617
625.8	0.954
626.0	0.95474
626.2	0.95302
626.4	0.95476
626.6	0.95546
626.8	0.95481
627.0	0.95398
627.2	0.9533
627.4	0.95419
627.6	0.95427
627.8	0.95314
628.0	0.95335
628.2	0.9546
628.4	0.95259
628.6	0.95354
628.8	0.95596
629.0	0.95513
629.2	0.95614
629.4	0.95713
629.6	0.95694
629.8	0.95893
630.0	0.9555
630.2	0.95713
630.4	0.95848
