Typical Measured Spectrum of Semrock Di03-R488 Optical Filter	
For wavelengths between 320 and 1120 nm, values near or below 3e-7 (Optical Density 6.5) are measurement noise limited.
For wavelengths < 320 nm and > 1120 nm, values near or below 3e-6 (Optical Density 5.5) are measurement noise limited. 
Data format:  Wavelength (nm) <tab> Transmission (0 to 1)

345.0	0.01504
345.2	0.01463
345.4	0.01193
345.6	0.00688
345.8	0.0044
346.0	0.00391
346.2	0.00542
346.4	0.00827
346.6	0.00964
346.8	0.00991
347.0	0.00824
347.2	0.00528
347.4	0.00351
347.6	0.00286
347.8	0.00364
348.0	0.00491
348.2	0.00625
348.4	0.0062
348.6	0.00507
348.8	0.00395
349.0	0.00262
349.2	0.0021
349.4	0.00217
349.6	0.00301
349.8	0.00435
350.0	0.00475
350.2	0.00469
350.4	0.00429
350.6	0.00281
350.8	0.00214
351.0	0.00191
351.2	0.00205
351.4	0.00289
351.6	0.00413
351.8	0.00446
352.0	0.00439
352.2	0.00338
352.4	0.00257
352.6	0.00186
352.8	0.0017
353.0	0.00222
353.2	0.0031
353.4	0.00366
353.6	0.00417
353.8	0.00366
354.0	0.00281
354.2	0.00222
354.4	0.0015
354.6	0.00142
354.8	0.00172
355.0	0.00253
355.2	0.00355
355.4	0.00387
355.6	0.00378
355.8	0.003
356.0	0.0023
356.2	0.00157
356.4	0.00144
356.6	0.00164
356.8	0.0027
357.0	0.00383
357.2	0.00445
357.4	0.00462
357.6	0.0041
357.8	0.0029
358.0	0.0021
358.2	0.00174
358.4	0.00185
358.6	0.00302
358.8	0.00518
359.0	0.00694
359.2	0.00792
359.4	0.00745
359.6	0.00554
359.8	0.00392
360.0	0.00291
360.2	0.00381
360.4	0.00764
360.6	0.01234
360.8	0.01501
361.0	0.01592
361.2	0.01435
361.4	0.01107
361.6	0.00807
361.8	0.00938
362.0	0.01465
362.2	0.0189
362.4	0.02072
362.6	0.01965
362.8	0.01703
363.0	0.01109
363.2	0.00785
363.4	0.0083
363.6	0.01125
363.8	0.01274
364.0	0.01283
364.2	0.01138
364.4	0.00916
364.6	0.00545
364.8	0.00327
365.0	0.00258
365.2	0.00216
365.4	0.00334
365.6	0.00469
365.8	0.00589
366.0	0.00617
366.2	0.00548
366.4	0.00381
366.6	0.0022
366.8	0.00136
367.0	0.00123
367.2	0.00125
367.4	0.00176
367.6	0.00355
367.8	0.00566
368.0	0.00681
368.2	0.00736
368.4	0.00657
368.6	0.00479
368.8	0.00304
369.0	0.00224
369.2	0.00359
369.4	0.00826
369.6	0.01252
369.8	0.0143
370.0	0.01484
370.2	0.01316
370.4	0.00916
370.6	0.00446
370.8	0.0023
371.0	0.00216
371.2	0.00248
371.4	0.00493
371.6	0.00977
371.8	0.01335
372.0	0.0149
372.2	0.01532
372.4	0.01328
372.6	0.00914
372.8	0.00527
373.0	0.00472
373.2	0.00832
373.4	0.01268
373.6	0.01506
373.8	0.01584
374.0	0.01493
374.2	0.01191
374.4	0.00725
374.6	0.00381
374.8	0.00299
375.0	0.00375
375.2	0.00668
375.4	0.01143
375.6	0.01435
375.8	0.01586
376.0	0.01524
376.2	0.01248
376.4	0.00797
376.6	0.00433
376.8	0.00313
377.0	0.00372
377.2	0.00678
377.4	0.0112
377.6	0.01405
377.8	0.01549
378.0	0.01518
378.2	0.01277
378.4	0.00831
378.6	0.00449
378.8	0.0033
379.0	0.00379
379.2	0.00685
379.4	0.01184
379.6	0.01537
379.8	0.0171
380.0	0.017
380.2	0.0147
380.4	0.01051
380.6	0.0059
380.8	0.00391
381.0	0.00444
381.2	0.00736
381.4	0.01218
381.6	0.0155
381.8	0.01685
382.0	0.01713
382.2	0.01496
382.4	0.01072
382.6	0.00598
382.8	0.0039
383.0	0.00381
383.2	0.00584
383.4	0.01041
383.6	0.01457
383.8	0.01648
384.0	0.01697
384.2	0.01552
384.4	0.01163
384.6	0.00676
384.8	0.00398
385.0	0.00319
385.2	0.00391
385.4	0.00733
385.6	0.01216
385.8	0.01523
386.0	0.01676
386.2	0.01633
386.4	0.01392
386.6	0.00952
386.8	0.00505
387.0	0.00304
387.2	0.00244
387.4	0.00284
387.6	0.00564
387.8	0.0106
388.0	0.01427
388.2	0.01621
388.4	0.01695
388.6	0.01508
388.8	0.01112
389.0	0.00652
389.2	0.00375
389.4	0.00279
389.6	0.0029
389.8	0.00509
390.0	0.01028
390.2	0.01477
390.4	0.01749
390.6	0.01845
390.8	0.01752
391.0	0.01412
391.2	0.00909
391.4	0.00505
391.6	0.00355
391.8	0.00334
392.0	0.00527
392.2	0.01002
392.4	0.01569
392.6	0.0194
392.8	0.02119
393.0	0.02091
393.2	0.01836
393.4	0.01291
393.6	0.00785
393.8	0.00531
394.0	0.00521
394.2	0.00729
394.4	0.01234
394.6	0.01681
394.8	0.01956
395.0	0.02068
395.2	0.01944
395.4	0.0158
395.6	0.01068
395.8	0.00681
396.0	0.00452
396.2	0.00405
396.4	0.005
396.6	0.00902
396.8	0.01453
397.0	0.01916
397.2	0.02173
397.4	0.02218
397.6	0.02023
397.8	0.01605
398.0	0.01049
398.2	0.00667
398.4	0.0053
398.6	0.00529
398.8	0.00808
399.0	0.01423
399.2	0.01969
399.4	0.02352
399.6	0.02516
399.8	0.02374
400.0	0.01981
400.2	0.01395
400.4	0.00874
400.6	0.00553
400.8	0.005
401.0	0.00633
401.2	0.01031
401.4	0.01686
401.6	0.02358
401.8	0.02753
402.0	0.02877
402.2	0.02743
402.4	0.02276
402.6	0.01666
402.8	0.01107
403.0	0.0087
403.2	0.00986
403.4	0.01397
403.6	0.02
403.8	0.0249
404.0	0.02758
404.2	0.02724
404.4	0.02475
404.6	0.01972
404.8	0.01368
405.0	0.00895
405.2	0.00713
405.4	0.00756
405.6	0.01023
405.8	0.01577
406.0	0.02178
406.2	0.02583
406.4	0.02721
406.6	0.02579
406.8	0.02203
407.0	0.01643
407.2	0.01083
407.4	0.00729
407.6	0.00615
407.8	0.00765
408.0	0.01134
408.2	0.01619
408.4	0.02018
408.6	0.02169
408.8	0.02155
409.0	0.01886
409.2	0.01448
409.4	0.00927
409.6	0.00536
409.8	0.00368
410.0	0.00301
410.2	0.00339
410.4	0.00501
410.6	0.00831
410.8	0.01171
411.0	0.0143
411.2	0.01507
411.4	0.01437
411.6	0.0121
411.8	0.00889
412.0	0.00554
412.2	0.00306
412.4	0.00198
412.6	0.00165
412.8	0.00166
413.0	0.00198
413.2	0.00313
413.4	0.0049
413.6	0.00704
413.8	0.00836
414.0	0.00908
414.2	0.00876
414.4	0.0076
414.6	0.00585
414.8	0.00383
415.0	0.00231
415.2	0.00157
415.4	0.00139
415.6	0.00134
415.8	0.00158
416.0	0.00217
416.2	0.00361
416.4	0.00606
416.6	0.00844
416.8	0.01006
417.0	0.01035
417.2	0.00975
417.4	0.00848
417.6	0.0064
417.8	0.00423
418.0	0.00274
418.2	0.00204
418.4	0.0018
418.6	0.00202
418.8	0.00277
419.0	0.0044
419.2	0.00777
419.4	0.01242
419.6	0.01576
419.8	0.01778
420.0	0.01784
420.2	0.01642
420.4	0.01356
420.6	0.0099
420.8	0.00671
421.0	0.00484
421.2	0.0045
421.4	0.00511
421.6	0.00745
421.8	0.01269
422.0	0.01991
422.2	0.02605
422.4	0.02962
422.6	0.03045
422.8	0.02831
423.0	0.02367
423.2	0.0176
423.4	0.01154
423.6	0.00781
423.8	0.0063
424.0	0.00642
424.2	0.00769
424.4	0.01113
424.6	0.01714
424.8	0.02445
425.0	0.02962
425.2	0.03216
425.4	0.03143
425.6	0.02842
425.8	0.02323
426.0	0.01697
426.2	0.01161
426.4	0.00806
426.6	0.00661
426.8	0.00609
427.0	0.00636
427.2	0.00804
427.4	0.01085
427.6	0.01611
427.8	0.02342
428.0	0.03096
428.2	0.03597
428.4	0.03805
428.6	0.03707
428.8	0.03288
429.0	0.02612
429.2	0.01897
429.4	0.01299
429.6	0.00907
429.8	0.00692
430.0	0.00593
430.2	0.00547
430.4	0.00547
430.6	0.00626
430.8	0.0078
431.0	0.01076
431.2	0.01455
431.4	0.01808
431.6	0.02034
431.8	0.02106
432.0	0.02014
432.2	0.01728
432.4	0.01325
432.6	0.00886
432.8	0.00563
433.0	0.00371
433.2	0.00269
433.4	0.00233
433.6	0.00211
433.8	0.00214
434.0	0.00241
434.2	0.00304
434.4	0.00428
434.6	0.00585
434.8	0.00721
435.0	0.00815
435.2	0.00856
435.4	0.00821
435.6	0.00723
435.8	0.00575
436.0	0.00401
436.2	0.00269
436.4	0.00192
436.6	0.0015
436.8	0.00123
437.0	0.00122
437.2	0.00131
437.4	0.00147
437.6	0.0019
437.8	0.00268
438.0	0.00371
438.2	0.00471
438.4	0.00539
438.6	0.00575
438.8	0.00576
439.0	0.00512
439.2	0.00423
439.4	0.0032
439.6	0.00222
439.8	0.0017
440.0	0.00132
440.2	0.00116
440.4	0.00111
440.6	0.00124
440.8	0.00153
441.0	0.00193
441.2	0.0028
441.4	0.00417
441.6	0.00556
441.8	0.00664
442.0	0.00727
442.2	0.00735
442.4	0.0067
442.6	0.00571
442.8	0.00431
443.0	0.00295
443.2	0.00199
443.4	0.00147
443.6	0.0013
443.8	0.0013
444.0	0.00135
444.2	0.00145
444.4	0.00196
444.6	0.00277
444.8	0.00406
445.0	0.00557
445.2	0.00678
445.4	0.00749
445.6	0.00767
445.8	0.00723
446.0	0.00629
446.2	0.00493
446.4	0.00366
446.6	0.00261
446.8	0.00204
447.0	0.00179
447.2	0.0017
447.4	0.00173
447.6	0.00201
447.8	0.00257
448.0	0.00348
448.2	0.0051
448.4	0.00706
448.6	0.00905
448.8	0.01032
449.0	0.01097
449.2	0.01077
449.4	0.00978
449.6	0.00822
449.8	0.00632
450.0	0.00473
450.2	0.00355
450.4	0.00301
450.6	0.0028
450.8	0.00288
451.0	0.00315
451.2	0.00385
451.4	0.00523
451.6	0.00741
451.8	0.01044
452.0	0.01336
452.2	0.01553
452.4	0.01662
452.6	0.01642
452.8	0.01527
453.0	0.01318
453.2	0.01031
453.4	0.00759
453.6	0.00545
453.8	0.00419
454.0	0.00347
454.2	0.0032
454.4	0.00313
454.6	0.00332
454.8	0.00386
455.0	0.00487
455.2	0.00666
455.4	0.00909
455.6	0.01185
455.8	0.01419
456.0	0.01523
456.2	0.01555
456.4	0.01467
456.6	0.01271
456.8	0.01006
457.0	0.00714
457.2	0.0047
457.4	0.00316
457.6	0.0023
457.8	0.00191
458.0	0.00163
458.2	0.00152
458.4	0.00161
458.6	0.0017
458.8	0.0021
459.0	0.00264
459.2	0.00371
459.4	0.00501
459.6	0.00617
459.8	0.0069
460.0	0.00722
460.2	0.00701
460.4	0.00632
460.6	0.0053
460.8	0.00395
461.0	0.00262
461.2	0.0017
461.4	0.00121
461.6	9.3047e-04
461.8	8.178e-04
462.0	8.1181e-04
462.2	8.1597e-04
462.4	8.8701e-04
462.6	0.00106
462.8	0.00126
463.0	0.00167
463.2	0.00231
463.4	0.00288
463.6	0.00334
463.8	0.00359
464.0	0.00356
464.2	0.0034
464.4	0.00297
464.6	0.00232
464.8	0.00169
465.0	0.0012
465.2	8.2759e-04
465.4	6.0909e-04
465.6	5.6191e-04
465.8	4.8337e-04
466.0	4.5783e-04
466.2	5.1545e-04
466.4	5.7163e-04
466.6	6.1661e-04
466.8	7.5957e-04
467.0	9.1492e-04
467.2	0.00119
467.4	0.00156
467.6	0.00189
467.8	0.002
468.0	0.00222
468.2	0.00257
468.4	0.00244
468.6	0.00209
468.8	0.00168
469.0	0.00147
469.2	0.00121
469.4	0.00108
469.6	9.9282e-04
469.8	0.00102
470.0	9.8351e-04
470.2	9.8036e-04
470.4	0.00104
470.6	0.00105
470.8	0.00107
471.0	0.0013
471.2	0.0015
471.4	0.00179
471.6	0.0021
471.8	0.00224
472.0	0.00236
472.2	0.00238
472.4	0.00224
472.6	0.00207
472.8	0.00184
473.0	0.0015
473.2	0.00124
473.4	0.00116
473.6	0.00114
473.8	0.00104
474.0	0.00111
474.2	0.00111
474.4	0.00104
474.6	0.00107
474.8	0.00109
475.0	0.00122
475.2	0.00128
475.4	0.00154
475.6	0.00186
475.8	0.00206
476.0	0.00215
476.2	0.00219
476.4	0.00216
476.6	0.00197
476.8	0.00181
477.0	0.00159
477.2	0.00142
477.4	0.00128
477.6	0.00125
477.8	0.00128
478.0	0.00114
478.2	0.00121
478.4	0.00131
478.6	0.00127
478.8	0.00127
479.0	0.00124
479.2	0.00132
479.4	0.00131
479.6	0.00137
479.8	0.00134
480.0	0.00133
480.2	0.00137
480.4	0.00131
480.6	0.00141
480.8	0.00134
481.0	0.00136
481.2	0.00132
481.4	0.00137
481.6	0.00142
481.8	0.00138
482.0	0.00141
482.2	0.00137
482.4	0.00139
482.6	0.00141
482.8	0.00144
483.0	0.00143
483.2	0.0014
483.4	0.00149
483.6	0.00149
483.8	0.00145
484.0	3.0943e-04
484.2	9.2954e-05
484.4	9.2518e-05
484.6	9.2124e-05
484.8	9.1671e-05
485.0	1.0082e-04
485.2	9.0664e-05
485.4	8.9931e-05
485.6	8.9366e-05
485.8	8.8766e-05
486.0	8.8361e-05
486.2	8.8135e-05
486.4	8.7945e-05
486.6	8.7764e-05
486.8	8.7255e-05
487.0	8.6954e-05
487.2	8.6693e-05
487.4	8.6709e-05
487.6	8.6391e-05
487.8	8.6429e-05
488.0	8.5921e-05
488.2	8.5501e-05
488.4	8.5227e-05
488.6	8.4836e-05
488.8	1.0614e-04
489.0	1.2145e-04
489.2	1.6928e-04
489.4	1.4597e-04
489.6	2.0314e-04
489.8	2.7931e-04
490.0	3.7627e-04
490.2	4.8815e-04
490.4	6.1032e-04
490.6	7.9509e-04
490.8	0.00107
491.0	0.00146
491.2	0.00195
491.4	0.00266
491.6	0.0037
491.8	0.00499
492.0	0.00716
492.2	0.00978
492.4	0.01367
492.6	0.01904
492.8	0.02678
493.0	0.03776
493.2	0.05293
493.4	0.07327
493.6	0.09937
493.8	0.13116
494.0	0.16821
494.2	0.20821
494.4	0.25082
494.6	0.29343
494.8	0.33533
495.0	0.37147
495.2	0.40449
495.4	0.42991
495.6	0.44978
495.8	0.46582
496.0	0.47485
496.2	0.48039
496.4	0.48556
496.6	0.48861
496.8	0.49132
497.0	0.49392
497.2	0.49664
497.4	0.4982
497.6	0.49889
497.8	0.50074
498.0	0.5048
498.2	0.51249
498.4	0.52874
498.6	0.55893
498.8	0.60026
499.0	0.65332
499.2	0.7104
499.4	0.77016
499.6	0.82959
499.8	0.88054
500.0	0.91995
500.2	0.94662
500.4	0.95773
500.6	0.96337
500.8	0.96582
501.0	0.96653
501.2	0.96673
501.4	0.96679
501.6	0.96635
501.8	0.96836
502.0	0.96965
502.2	0.96898
502.4	0.96917
502.6	0.96986
502.8	0.97084
503.0	0.96968
503.2	0.96903
503.4	0.96815
503.6	0.96767
503.8	0.96716
504.0	0.9664
504.2	0.96711
504.4	0.96671
504.6	0.96478
504.8	0.96259
505.0	0.96103
505.2	0.96052
505.4	0.95852
505.6	0.95658
505.8	0.95498
506.0	0.95487
506.2	0.95653
506.4	0.95756
506.6	0.95834
506.8	0.96297
507.0	0.96521
507.2	0.96802
507.4	0.97071
507.6	0.97125
507.8	0.97127
508.0	0.97116
508.2	0.97007
508.4	0.96624
508.6	0.96377
508.8	0.96234
509.0	0.95955
509.2	0.95734
509.4	0.95596
509.6	0.95611
509.8	0.95485
510.0	0.95818
510.2	0.96019
510.4	0.96214
510.6	0.96437
510.8	0.9661
511.0	0.96535
511.2	0.96791
511.4	0.96765
511.6	0.96795
511.8	0.96755
512.0	0.96634
512.2	0.96712
512.4	0.96458
512.6	0.96223
512.8	0.96064
513.0	0.96056
513.2	0.95959
513.4	0.95973
513.6	0.95936
513.8	0.96271
514.0	0.96238
514.2	0.96286
514.4	0.96489
514.6	0.96585
514.8	0.96844
515.0	0.9688
515.2	0.96865
515.4	0.96931
515.6	0.97029
515.8	0.97006
516.0	0.97051
516.2	0.96921
516.4	0.96984
516.6	0.96825
516.8	0.96506
517.0	0.9657
517.2	0.96365
517.4	0.96423
517.6	0.96266
517.8	0.96047
518.0	0.96172
518.2	0.963
518.4	0.96314
518.6	0.96478
518.8	0.96556
519.0	0.9661
519.2	0.96691
519.4	0.96744
519.6	0.97039
519.8	0.97217
520.0	0.97294
520.2	0.9747
520.4	0.97472
520.6	0.97457
520.8	0.97329
521.0	0.9742
521.2	0.9752
521.4	0.97412
521.6	0.97334
521.8	0.97289
522.0	0.97257
522.2	0.97212
522.4	0.97173
522.6	0.96917
522.8	0.96881
523.0	0.96741
523.2	0.96617
523.4	0.96629
523.6	0.96866
523.8	0.96919
524.0	0.96983
524.2	0.96743
524.4	0.96771
524.6	0.96978
524.8	0.97046
525.0	0.972
525.2	0.97367
525.4	0.9734
525.6	0.97141
525.8	0.97136
526.0	0.97204
526.2	0.97163
526.4	0.97191
526.6	0.97155
526.8	0.97264
527.0	0.97207
527.2	0.97187
527.4	0.97111
527.6	0.97174
527.8	0.97302
528.0	0.9739
528.2	0.97376
528.4	0.97449
528.6	0.97582
528.8	0.97762
529.0	0.9781
529.2	0.97924
529.4	0.97839
529.6	0.97825
529.8	0.97867
530.0	0.97898
530.2	0.97958
530.4	0.97855
530.6	0.9783
530.8	0.97771
531.0	0.97844
531.2	0.97767
531.4	0.97722
531.6	0.97679
531.8	0.9763
532.0	0.97545
532.2	0.97465
532.4	0.97493
532.6	0.97588
532.8	0.97658
533.0	0.97583
533.2	0.97469
533.4	0.9753
533.6	0.97622
533.8	0.97776
534.0	0.97609
534.2	0.97533
534.4	0.97337
534.6	0.97404
534.8	0.97496
535.0	0.97626
535.2	0.97557
535.4	0.97358
535.6	0.97407
535.8	0.97245
536.0	0.97264
536.2	0.97302
536.4	0.9742
536.6	0.97531
536.8	0.9734
537.0	0.97385
537.2	0.97436
537.4	0.9746
537.6	0.97573
537.8	0.97668
538.0	0.97743
538.2	0.97722
538.4	0.97692
538.6	0.97808
538.8	0.97682
539.0	0.97847
539.2	0.979
539.4	0.97699
539.6	0.97659
539.8	0.97811
540.0	0.97615
540.2	0.97907
540.4	0.97685
540.6	0.977
540.8	0.97702
541.0	0.97511
541.2	0.97394
541.4	0.97515
541.6	0.97564
541.8	0.974
542.0	0.97286
542.2	0.97426
542.4	0.97389
542.6	0.97388
542.8	0.97544
543.0	0.97564
543.2	0.97548
543.4	0.97564
543.6	0.97665
543.8	0.97719
544.0	0.97611
544.2	0.97818
544.4	0.97805
544.6	0.97906
544.8	0.97991
545.0	0.97919
545.2	0.97904
545.4	0.97712
545.6	0.97537
545.8	0.97689
546.0	0.97726
546.2	0.97697
546.4	0.97541
546.6	0.97539
546.8	0.97392
547.0	0.97341
547.2	0.97403
547.4	0.97354
547.6	0.97519
547.8	0.9748
548.0	0.97453
548.2	0.97525
548.4	0.97591
548.6	0.97627
548.8	0.97656
549.0	0.97897
549.2	0.97824
549.4	0.97654
549.6	0.97848
549.8	0.97996
550.0	0.98019
550.2	0.98036
550.4	0.97867
550.6	0.97819
550.8	0.97655
551.0	0.97526
551.2	0.97413
551.4	0.97199
551.6	0.97457
551.8	0.9761
552.0	0.97549
552.2	0.97717
552.4	0.97724
552.6	0.97649
552.8	0.97743
553.0	0.98028
553.2	0.97953
553.4	0.97868
553.6	0.97999
553.8	0.98056
554.0	0.98043
554.2	0.97852
554.4	0.98039
554.6	0.98022
554.8	0.9794
555.0	0.97862
555.2	0.9784
555.4	0.97751
555.6	0.97716
555.8	0.97445
556.0	0.97454
556.2	0.97336
556.4	0.97243
556.6	0.97223
556.8	0.97206
557.0	0.96961
557.2	0.97085
557.4	0.9706
557.6	0.97218
557.8	0.97127
558.0	0.97144
558.2	0.97138
558.4	0.97211
558.6	0.97155
558.8	0.97368
559.0	0.97425
559.2	0.97442
559.4	0.97688
559.6	0.9752
559.8	0.97412
560.0	0.9745
560.2	0.97412
560.4	0.97371
560.6	0.97312
560.8	0.97504
561.0	0.97434
561.2	0.97504
561.4	0.97384
561.6	0.97275
561.8	0.97096
562.0	0.97143
562.2	0.97147
562.4	0.9687
562.6	0.96922
562.8	0.97021
563.0	0.9706
563.2	0.97155
563.4	0.97112
563.6	0.97118
563.8	0.97176
564.0	0.9719
564.2	0.974
564.4	0.97458
564.6	0.9757
564.8	0.97647
565.0	0.97727
565.2	0.97745
565.4	0.97782
565.6	0.97825
565.8	0.97719
566.0	0.97569
566.2	0.97434
566.4	0.97101
566.6	0.9708
566.8	0.97176
567.0	0.97118
567.2	0.96914
567.4	0.96819
567.6	0.96653
567.8	0.96455
568.0	0.9659
568.2	0.96729
568.4	0.96515
568.6	0.96462
568.8	0.96512
569.0	0.96431
569.2	0.96544
569.4	0.96753
569.6	0.9687
569.8	0.97027
570.0	0.97102
570.2	0.97233
570.4	0.97214
570.6	0.9742
570.8	0.97284
571.0	0.97188
571.2	0.97195
571.4	0.97201
571.6	0.97365
571.8	0.97432
572.0	0.97288
572.2	0.9727
572.4	0.97023
572.6	0.96893
572.8	0.96715
573.0	0.9669
573.2	0.96649
573.4	0.96683
573.6	0.96609
573.8	0.96652
574.0	0.96753
574.2	0.96638
574.4	0.96797
574.6	0.96677
574.8	0.96755
575.0	0.96814
575.2	0.96721
575.4	0.96716
575.6	0.9675
575.8	0.96768
576.0	0.96894
576.2	0.96795
576.4	0.96914
576.6	0.97079
576.8	0.97137
577.0	0.97275
577.2	0.972
577.4	0.97076
577.6	0.97015
577.8	0.97141
578.0	0.97283
578.2	0.97316
578.4	0.9704
578.6	0.96955
578.8	0.9699
579.0	0.96993
579.2	0.9673
579.4	0.9673
579.6	0.96722
579.8	0.96772
580.0	0.96849
580.2	0.9663
580.4	0.96645
580.6	0.96777
580.8	0.96692
581.0	0.968
581.2	0.96677
581.4	0.96524
581.6	0.96612
581.8	0.96733
582.0	0.96802
582.2	0.96803
582.4	0.96928
582.6	0.97159
582.8	0.97385
583.0	0.97598
583.2	0.97597
583.4	0.97696
583.6	0.97754
583.8	0.97991
584.0	0.9806
584.2	0.98386
584.4	0.98414
584.6	0.98395
584.8	0.98734
585.0	0.98722
585.2	0.98605
585.4	0.98604
585.6	0.986
585.8	0.9872
586.0	0.98554
586.2	0.98709
586.4	0.98632
586.6	0.98645
586.8	0.9868
587.0	0.98457
587.2	0.98505
587.4	0.98521
587.6	0.98514
587.8	0.9838
588.0	0.98546
588.2	0.98493
588.4	0.98474
588.6	0.98282
588.8	0.98381
589.0	0.9832
589.2	0.98459
589.4	0.98397
589.6	0.98386
589.8	0.98556
590.0	0.98543
590.2	0.9831
590.4	0.98294
590.6	0.98405
590.8	0.98346
591.0	0.98302
591.2	0.98134
591.4	0.98205
591.6	0.98096
591.8	0.9811
592.0	0.98151
592.2	0.9799
592.4	0.97809
592.6	0.97832
592.8	0.97747
593.0	0.97927
593.2	0.97948
593.4	0.97873
593.6	0.97863
593.8	0.97791
594.0	0.97837
594.2	0.9784
594.4	0.97559
594.6	0.97713
594.8	0.97978
595.0	0.97854
595.2	0.97891
595.4	0.9792
595.6	0.97798
595.8	0.97885
596.0	0.97818
596.2	0.97924
596.4	0.97838
596.6	0.97734
596.8	0.97831
597.0	0.97634
597.2	0.97762
597.4	0.97637
597.6	0.97624
597.8	0.97356
598.0	0.97462
598.2	0.97452
598.4	0.97316
598.6	0.97374
598.8	0.97207
599.0	0.97034
599.2	0.97183
599.4	0.9705
599.6	0.97092
599.8	0.97255
600.0	0.97179
600.2	0.9709
600.4	0.96976
600.6	0.97161
600.8	0.97118
601.0	0.97105
601.2	0.97044
601.4	0.9715
601.6	0.97102
601.8	0.96957
602.0	0.96881
602.2	0.96944
602.4	0.96888
602.6	0.96764
602.8	0.96884
603.0	0.96962
603.2	0.96925
603.4	0.96705
603.6	0.96776
603.8	0.96649
604.0	0.96633
604.2	0.96781
604.4	0.96725
604.6	0.96585
604.8	0.96541
605.0	0.96685
605.2	0.97267
605.4	0.97307
605.6	0.97298
605.8	0.97116
606.0	0.97127
606.2	0.97149
606.4	0.97149
606.6	0.97192
606.8	0.97335
607.0	0.97652
607.2	0.97873
607.4	0.97716
607.6	0.97588
607.8	0.97594
608.0	0.97378
608.2	0.97406
608.4	0.97335
608.6	0.97494
608.8	0.97396
609.0	0.97519
609.2	0.97496
609.4	0.97321
609.6	0.97333
609.8	0.97373
610.0	0.9739
610.2	0.97217
610.4	0.97262
610.6	0.97182
610.8	0.96996
611.0	0.9719
611.2	0.97287
611.4	0.9735
611.6	0.97362
611.8	0.97424
612.0	0.97564
612.2	0.9766
612.4	0.97664
612.6	0.97582
612.8	0.97518
613.0	0.97587
613.2	0.9769
613.4	0.97962
613.6	0.97879
613.8	0.97796
614.0	0.97869
614.2	0.98049
614.4	0.98025
614.6	0.98011
614.8	0.97936
615.0	0.97942
615.2	0.97849
615.4	0.97838
615.6	0.97771
615.8	0.97643
616.0	0.97499
616.2	0.97337
616.4	0.97276
616.6	0.97089
616.8	0.97048
617.0	0.97081
617.2	0.97115
617.4	0.97257
617.6	0.97265
617.8	0.97132
618.0	0.96978
618.2	0.9714
618.4	0.97141
618.6	0.97203
618.8	0.97305
619.0	0.97332
619.2	0.9753
619.4	0.97622
619.6	0.97825
619.8	0.97923
620.0	0.97935
620.2	0.98106
620.4	0.98141
620.6	0.98065
620.8	0.98056
621.0	0.98007
621.2	0.98021
621.4	0.97964
621.6	0.97935
621.8	0.97904
622.0	0.97737
622.2	0.97481
622.4	0.97396
622.6	0.97325
622.8	0.97198
623.0	0.97113
623.2	0.97252
623.4	0.97251
623.6	0.97129
623.8	0.97017
624.0	0.96913
624.2	0.96644
624.4	0.96735
624.6	0.96681
624.8	0.96699
625.0	0.96866
625.2	0.96834
625.4	0.96998
